;PC Software:StarLab Version 2.10 Build 25
;Logged:20/09/2022 at 16:34:59
;File Version:3
;Graph Type:Line
;Notes:                                                            

;Channel A:Nova II Photodiode PD300-3W-v1 (s/n:763106)  NN2.52 (s/n:767396)
;Channel B:Vega Thermopile 10A-V1.1 (s/n:693380)  VG2.44 (s/n:858327)

;Channel A:Details
;Name:PD300-3W-v1
;Graph Color:RGB(0,102,255)
;Units:W
;Settings:Measuring:Power
;Settings:Wavelength:1064
;Settings:Range:AUTO
;Settings:Filter:IN

;Channel B:Details
;Name:10A-V1.1
;Graph Color:RGB(154,0,0)
;Units:W
;Settings:Measuring:Power
;Settings:Laser:.8-6
;Settings:Range:AUTO
;--------------------


;First Pulse Arrived : 20/09/2022 at 16:35:00.153000
  Timestamp   	  Channel A  	  Channel B  	
         0.000	  4.530e-003 	             	
         0.002	             	  5.100e-001 	
         0.064	  4.520e-003 	             	
         0.066	             	  5.100e-001 	
         0.128	  4.530e-003 	             	
         0.130	             	  5.100e-001 	
         0.192	  4.530e-003 	             	
         0.194	             	  5.100e-001 	
         0.256	  4.540e-003 	             	
         0.258	             	  5.100e-001 	
         0.320	  4.530e-003 	             	
         0.322	             	  5.100e-001 	
         0.383	  4.540e-003 	             	
         0.386	             	  5.100e-001 	
         0.447	  4.540e-003 	             	
         0.450	             	  5.100e-001 	
         0.511	  4.520e-003 	             	
         0.514	             	  5.100e-001 	
         0.576	  4.520e-003 	             	
         0.578	             	  5.100e-001 	
         0.640	  4.530e-003 	             	
         0.674	             	  5.100e-001 	
         0.736	  4.550e-003 	             	
         0.738	             	  5.100e-001 	
         0.800	  4.530e-003 	             	
         0.802	             	  5.100e-001 	
         0.863	  4.520e-003 	             	
         0.866	             	  5.100e-001 	
         0.927	  4.510e-003 	             	
         0.930	             	  5.100e-001 	
         0.991	  4.530e-003 	             	
         0.994	             	  5.100e-001 	
         1.056	  4.550e-003 	             	
         1.058	             	  5.100e-001 	
         1.119	  4.520e-003 	             	
         1.122	             	  5.100e-001 	
         1.183	  4.540e-003 	             	
         1.186	             	  5.100e-001 	
         1.247	  4.550e-003 	             	
         1.250	             	  5.100e-001 	
         1.311	  4.550e-003 	             	
         1.314	             	  5.100e-001 	
         1.375	  4.530e-003 	             	
         1.378	             	  5.100e-001 	
         1.439	  4.540e-003 	             	
         1.474	             	  5.100e-001 	
         1.535	  4.520e-003 	             	
         1.538	             	  5.100e-001 	
         1.599	  4.530e-003 	             	
         1.602	             	  5.100e-001 	
         1.663	  4.530e-003 	             	
         1.666	             	  5.100e-001 	
         1.727	  4.550e-003 	             	
         1.730	             	  5.100e-001 	
         1.791	  4.530e-003 	             	
         1.794	             	  5.100e-001 	
         1.855	  4.510e-003 	             	
         1.858	             	  5.100e-001 	
         1.919	  4.530e-003 	             	
         1.922	             	  5.100e-001 	
         1.983	  4.510e-003 	             	
         1.986	             	  5.100e-001 	
         2.047	  4.540e-003 	             	
         2.050	             	  5.100e-001 	
         2.111	  4.510e-003 	             	
         2.114	             	  5.100e-001 	
         2.175	  4.520e-003 	             	
         2.178	             	  5.100e-001 	
         2.239	  4.520e-003 	             	
         2.274	             	  5.100e-001 	
         2.335	  4.520e-003 	             	
         2.338	             	  5.100e-001 	
         2.399	  4.530e-003 	             	
         2.402	             	  5.100e-001 	
         2.463	  4.530e-003 	             	
         2.466	             	  5.100e-001 	
         2.527	  4.530e-003 	             	
         2.530	             	  5.100e-001 	
         2.591	  4.540e-003 	             	
         2.594	             	  5.100e-001 	
         2.655	  4.520e-003 	             	
         2.658	             	  5.100e-001 	
         2.719	  4.520e-003 	             	
         2.722	             	  5.110e-001 	
         2.783	  4.520e-003 	             	
         2.786	             	  5.110e-001 	
         2.847	  4.520e-003 	             	
         2.850	             	  5.110e-001 	
         2.911	  4.500e-003 	             	
         2.914	             	  5.110e-001 	
         2.975	  4.530e-003 	             	
         2.978	             	  5.110e-001 	
         3.039	  4.500e-003 	             	
         3.074	             	  5.110e-001 	
         3.103	  4.490e-003 	             	
         3.138	             	  5.110e-001 	
         3.199	  4.480e-003 	             	
         3.202	             	  5.100e-001 	
         3.263	  4.490e-003 	             	
         3.266	             	  5.100e-001 	
         3.327	  4.490e-003 	             	
         3.330	             	  5.100e-001 	
         3.391	  4.500e-003 	             	
         3.394	             	  5.100e-001 	
         3.455	  4.490e-003 	             	
         3.458	             	  5.100e-001 	
         3.519	  4.480e-003 	             	
         3.522	             	  5.100e-001 	
         3.583	  4.480e-003 	             	
         3.586	             	  5.100e-001 	
         3.647	  4.480e-003 	             	
         3.650	             	  5.100e-001 	
         3.711	  4.490e-003 	             	
         3.714	             	  5.100e-001 	
         3.775	  4.470e-003 	             	
         3.778	             	  5.100e-001 	
         3.839	  4.500e-003 	             	
         3.874	             	  5.100e-001 	
         3.903	  4.490e-003 	             	
         3.938	             	  5.100e-001 	
         3.999	  4.490e-003 	             	
         4.002	             	  5.100e-001 	
         4.063	  4.480e-003 	             	
         4.066	             	  5.100e-001 	
         4.127	  4.480e-003 	             	
         4.130	             	  5.100e-001 	
         4.191	  4.470e-003 	             	
         4.194	             	  5.100e-001 	
         4.255	  4.490e-003 	             	
         4.258	             	  5.100e-001 	
         4.319	  4.490e-003 	             	
         4.322	             	  5.100e-001 	
         4.383	  4.490e-003 	             	
         4.386	             	  5.100e-001 	
         4.447	  4.500e-003 	             	
         4.450	             	  5.100e-001 	
         4.511	  4.500e-003 	             	
         4.514	             	  5.100e-001 	
         4.575	  4.500e-003 	             	
         4.578	             	  5.100e-001 	
         4.639	  4.490e-003 	             	
         4.674	             	  5.100e-001 	
         4.703	  4.480e-003 	             	
         4.738	             	  5.100e-001 	
         4.799	  4.510e-003 	             	
         4.802	             	  5.100e-001 	
         4.863	  4.490e-003 	             	
         4.866	             	  5.100e-001 	
         4.927	  4.470e-003 	             	
         4.930	             	  5.100e-001 	
         4.991	  4.470e-003 	             	
         4.994	             	  5.100e-001 	
         5.055	  4.500e-003 	             	
         5.058	             	  5.100e-001 	
         5.119	  4.480e-003 	             	
         5.122	             	  5.100e-001 	
         5.183	  4.460e-003 	             	
         5.186	             	  5.100e-001 	
         5.247	  4.450e-003 	             	
         5.250	             	  5.100e-001 	
         5.311	  4.450e-003 	             	
         5.314	             	  5.100e-001 	
         5.375	  4.430e-003 	             	
         5.378	             	  5.100e-001 	
         5.439	  4.440e-003 	             	
         5.474	             	  5.100e-001 	
         5.503	  4.430e-003 	             	
         5.538	             	  5.100e-001 	
         5.599	  4.450e-003 	             	
         5.602	             	  5.100e-001 	
         5.663	  4.440e-003 	             	
         5.666	             	  5.100e-001 	
         5.727	  4.430e-003 	             	
         5.730	             	  5.100e-001 	
         5.791	  4.420e-003 	             	
         5.794	             	  5.100e-001 	
         5.855	  4.430e-003 	             	
         5.858	             	  5.100e-001 	
         5.919	  4.430e-003 	             	
         5.922	             	  5.100e-001 	
         5.983	  4.400e-003 	             	
         5.986	             	  5.100e-001 	
         6.047	  4.400e-003 	             	
         6.050	             	  5.100e-001 	
         6.111	  4.390e-003 	             	
         6.114	             	  5.100e-001 	
         6.175	  4.360e-003 	             	
         6.178	             	  5.100e-001 	
         6.239	  4.390e-003 	             	
         6.274	             	  5.100e-001 	
         6.303	  4.380e-003 	             	
         6.338	             	  5.100e-001 	
         6.399	  4.380e-003 	             	
         6.402	             	  5.100e-001 	
         6.463	  4.350e-003 	             	
         6.466	             	  5.100e-001 	
         6.527	  4.370e-003 	             	
         6.530	             	  5.100e-001 	
         6.591	  4.350e-003 	             	
         6.594	             	  5.100e-001 	
         6.655	  4.340e-003 	             	
         6.658	             	  5.100e-001 	
         6.719	  4.340e-003 	             	
         6.722	             	  5.100e-001 	
         6.783	  4.350e-003 	             	
         6.786	             	  5.100e-001 	
         6.847	  4.350e-003 	             	
         6.850	             	  5.100e-001 	
         6.911	  4.340e-003 	             	
         6.914	             	  5.100e-001 	
         6.975	  4.320e-003 	             	
         6.978	             	  5.100e-001 	
         7.039	  4.340e-003 	             	
         7.074	             	  5.100e-001 	
         7.103	  4.350e-003 	             	
         7.138	             	  5.100e-001 	
         7.199	  4.330e-003 	             	
         7.202	             	  5.100e-001 	
         7.263	  4.340e-003 	             	
         7.266	             	  5.100e-001 	
         7.327	  4.340e-003 	             	
         7.330	             	  5.100e-001 	
         7.391	  4.340e-003 	             	
         7.394	             	  5.100e-001 	
         7.455	  4.330e-003 	             	
         7.458	             	  5.110e-001 	
         7.519	  4.320e-003 	             	
         7.522	             	  5.110e-001 	
         7.583	  4.320e-003 	             	
         7.586	             	  5.110e-001 	
         7.647	  4.330e-003 	             	
         7.650	             	  5.100e-001 	
         7.711	  4.340e-003 	             	
         7.714	             	  5.100e-001 	
         7.775	  4.340e-003 	             	
         7.778	             	  5.100e-001 	
         7.839	  4.320e-003 	             	
         7.874	             	  5.100e-001 	
         7.903	  4.320e-003 	             	
         7.938	             	  5.100e-001 	
         7.999	  4.310e-003 	             	
         8.002	             	  5.100e-001 	
         8.063	  4.330e-003 	             	
         8.066	             	  5.100e-001 	
         8.127	  4.300e-003 	             	
         8.130	             	  5.100e-001 	
         8.191	  4.290e-003 	             	
         8.194	             	  5.100e-001 	
         8.255	  4.290e-003 	             	
         8.258	             	  5.100e-001 	
         8.319	  4.290e-003 	             	
         8.322	             	  5.100e-001 	
         8.383	  4.290e-003 	             	
         8.386	             	  5.100e-001 	
         8.447	  4.290e-003 	             	
         8.450	             	  5.100e-001 	
         8.511	  4.310e-003 	             	
         8.514	             	  5.100e-001 	
         8.575	  4.280e-003 	             	
         8.578	             	  5.100e-001 	
         8.639	  4.300e-003 	             	
         8.674	             	  5.100e-001 	
         8.703	  4.260e-003 	             	
         8.738	             	  5.110e-001 	
         8.799	  4.250e-003 	             	
         8.802	             	  5.110e-001 	
         8.863	  4.280e-003 	             	
         8.866	             	  5.100e-001 	
         8.927	  4.260e-003 	             	
         8.930	             	  5.100e-001 	
         8.991	  4.280e-003 	             	
         8.994	             	  5.100e-001 	
         9.055	  4.270e-003 	             	
         9.058	             	  5.100e-001 	
         9.119	  4.270e-003 	             	
         9.122	             	  5.100e-001 	
         9.183	  4.270e-003 	             	
         9.186	             	  5.100e-001 	
         9.247	  4.280e-003 	             	
         9.250	             	  5.100e-001 	
         9.311	  4.250e-003 	             	
         9.314	             	  5.100e-001 	
         9.375	  4.250e-003 	             	
         9.378	             	  5.100e-001 	
         9.439	  4.280e-003 	             	
         9.474	             	  5.100e-001 	
         9.503	  4.260e-003 	             	
         9.538	             	  5.100e-001 	
         9.599	  4.260e-003 	             	
         9.602	             	  5.100e-001 	
         9.663	  4.270e-003 	             	
         9.666	             	  5.100e-001 	
         9.727	  4.270e-003 	             	
         9.730	             	  5.100e-001 	
         9.791	  4.280e-003 	             	
         9.794	             	  5.110e-001 	
         9.855	  4.290e-003 	             	
         9.858	             	  5.110e-001 	
         9.919	  4.280e-003 	             	
         9.922	             	  5.100e-001 	
         9.983	  4.270e-003 	             	
         9.986	             	  5.100e-001 	
        10.047	  4.250e-003 	             	
        10.050	             	  5.100e-001 	
        10.111	  4.260e-003 	             	
        10.114	             	  5.100e-001 	
        10.175	  4.280e-003 	             	
        10.178	             	  5.100e-001 	
        10.239	  4.270e-003 	             	
        10.274	             	  5.100e-001 	
        10.303	  4.280e-003 	             	
        10.338	             	  5.100e-001 	
        10.399	  4.280e-003 	             	
        10.402	             	  5.100e-001 	
        10.463	  4.260e-003 	             	
        10.466	             	  5.100e-001 	
        10.527	  4.270e-003 	             	
        10.530	             	  5.100e-001 	
        10.591	  4.240e-003 	             	
        10.594	             	  5.100e-001 	
        10.655	  4.260e-003 	             	
        10.658	             	  5.100e-001 	
        10.719	  4.240e-003 	             	
        10.722	             	  5.100e-001 	
        10.783	  4.250e-003 	             	
        10.786	             	  5.100e-001 	
        10.847	  4.240e-003 	             	
        10.850	             	  5.100e-001 	
        10.911	  4.220e-003 	             	
        10.914	             	  5.100e-001 	
        10.975	  4.250e-003 	             	
        10.978	             	  5.100e-001 	
        11.039	  4.250e-003 	             	
        11.074	             	  5.100e-001 	
        11.103	  4.240e-003 	             	
        11.138	             	  5.100e-001 	
        11.199	  4.230e-003 	             	
        11.202	             	  5.100e-001 	
        11.263	  4.220e-003 	             	
        11.266	             	  5.110e-001 	
        11.327	  4.210e-003 	             	
        11.330	             	  5.100e-001 	
        11.391	  4.200e-003 	             	
        11.394	             	  5.100e-001 	
        11.455	  4.200e-003 	             	
        11.458	             	  5.100e-001 	
        11.519	  4.220e-003 	             	
        11.522	             	  5.100e-001 	
        11.583	  4.230e-003 	             	
        11.586	             	  5.100e-001 	
        11.647	  4.210e-003 	             	
        11.650	             	  5.100e-001 	
        11.711	  4.240e-003 	             	
        11.714	             	  5.100e-001 	
        11.775	  4.250e-003 	             	
        11.778	             	  5.100e-001 	
        11.839	  4.240e-003 	             	
        11.874	             	  5.100e-001 	
        11.903	  4.250e-003 	             	
        11.938	             	  5.100e-001 	
        11.999	  4.270e-003 	             	
        12.002	             	  5.100e-001 	
        12.063	  4.270e-003 	             	
        12.066	             	  5.100e-001 	
        12.127	  4.270e-003 	             	
        12.130	             	  5.100e-001 	
        12.191	  4.300e-003 	             	
        12.194	             	  5.100e-001 	
        12.255	  4.300e-003 	             	
        12.258	             	  5.100e-001 	
        12.319	  4.330e-003 	             	
        12.322	             	  5.100e-001 	
        12.383	  4.350e-003 	             	
        12.386	             	  5.100e-001 	
        12.447	  4.290e-003 	             	
        12.450	             	  5.100e-001 	
        12.511	  4.240e-003 	             	
        12.514	             	  5.100e-001 	
        12.575	  4.220e-003 	             	
        12.578	             	  5.100e-001 	
        12.639	  4.210e-003 	             	
        12.674	             	  5.100e-001 	
        12.703	  4.220e-003 	             	
        12.738	             	  5.100e-001 	
        12.799	  4.210e-003 	             	
        12.802	             	  5.100e-001 	
        12.863	  4.210e-003 	             	
        12.866	             	  5.100e-001 	
        12.927	  4.220e-003 	             	
        12.930	             	  5.100e-001 	
        12.991	  4.200e-003 	             	
        12.994	             	  5.100e-001 	
        13.055	  4.190e-003 	             	
        13.058	             	  5.100e-001 	
        13.119	  4.190e-003 	             	
        13.122	             	  5.100e-001 	
        13.183	  4.180e-003 	             	
        13.186	             	  5.110e-001 	
        13.247	  4.190e-003 	             	
        13.250	             	  5.110e-001 	
        13.311	  4.190e-003 	             	
        13.314	             	  5.110e-001 	
        13.375	  4.190e-003 	             	
        13.378	             	  5.110e-001 	
        13.439	  4.180e-003 	             	
        13.442	             	  5.110e-001 	
        13.503	  4.180e-003 	             	
        13.538	             	  5.110e-001 	
        13.599	  4.190e-003 	             	
        13.602	             	  5.110e-001 	
        13.663	  4.180e-003 	             	
        13.666	             	  5.110e-001 	
        13.727	  4.190e-003 	             	
        13.730	             	  5.110e-001 	
        13.791	  4.190e-003 	             	
        13.794	             	  5.110e-001 	
        13.855	  4.170e-003 	             	
        13.858	             	  5.110e-001 	
        13.919	  4.150e-003 	             	
        13.922	             	  5.110e-001 	
        13.983	  4.100e-003 	             	
        13.986	             	  5.100e-001 	
        14.047	  4.100e-003 	             	
        14.050	             	  5.110e-001 	
        14.111	  4.110e-003 	             	
        14.114	             	  5.110e-001 	
        14.175	  4.080e-003 	             	
