;PC Software:StarLab Version 2.10 Build 25
;Logged:22/09/2022 at 15:13:42
;File Version:3
;Graph Type:Line
;Notes:                                                            

;Channel A:Nova II Photodiode PD300-3W-v1 (s/n:763106)  NN2.52 (s/n:767396)
;Channel B:Vega Thermopile 10A-V1.1 (s/n:693380)  VG2.44 (s/n:858327)

;Channel A:Details
;Name:PD300-3W-v1
;Graph Color:RGB(0,102,255)
;Units:W
;Settings:Measuring:Power
;Settings:Wavelength:1064
;Settings:Range:AUTO
;Settings:Filter:IN

;Channel B:Details
;Name:10A-V1.1
;Graph Color:RGB(154,0,0)
;Units:W
;Settings:Measuring:Power
;Settings:Laser:.8-6
;Settings:Range:AUTO
;--------------------


;First Pulse Arrived : 22/09/2022 at 15:13:42.856000
  Timestamp   	  Channel A  	  Channel B  	
         0.000	  1.150e-001 	             	
         0.025	             	  4.201e-001 	
         0.096	  1.161e-001 	             	
         0.121	             	  4.206e-001 	
         0.160	  1.158e-001 	             	
         0.185	             	  4.210e-001 	
         0.224	  1.157e-001 	             	
         0.249	             	  4.215e-001 	
         0.288	  1.163e-001 	             	
         0.313	             	  4.218e-001 	
         0.352	  1.158e-001 	             	
         0.377	             	  4.221e-001 	
         0.416	  1.152e-001 	             	
         0.441	             	  4.224e-001 	
         0.480	  1.161e-001 	             	
         0.505	             	  4.227e-001 	
         0.544	  1.167e-001 	             	
         0.569	             	  4.230e-001 	
         0.608	  1.153e-001 	             	
         0.633	             	  4.233e-001 	
         0.672	  1.160e-001 	             	
         0.697	             	  4.237e-001 	
         0.736	  1.151e-001 	             	
         0.761	             	  4.241e-001 	
         0.800	  1.146e-001 	             	
         0.825	             	  4.245e-001 	
         0.896	  1.148e-001 	             	
         0.921	             	  4.248e-001 	
         0.960	  1.156e-001 	             	
         0.985	             	  4.251e-001 	
         1.024	  1.151e-001 	             	
         1.049	             	  4.254e-001 	
         1.088	  1.157e-001 	             	
         1.113	             	  4.255e-001 	
         1.152	  1.154e-001 	             	
         1.177	             	  4.256e-001 	
         1.216	  1.153e-001 	             	
         1.241	             	  4.257e-001 	
         1.280	  1.153e-001 	             	
         1.305	             	  4.259e-001 	
         1.344	  1.160e-001 	             	
         1.369	             	  4.260e-001 	
         1.408	  1.151e-001 	             	
         1.433	             	  4.262e-001 	
         1.472	  1.153e-001 	             	
         1.497	             	  4.263e-001 	
         1.536	  1.145e-001 	             	
         1.561	             	  4.265e-001 	
         1.600	  1.163e-001 	             	
         1.625	             	  4.266e-001 	
         1.664	  1.159e-001 	             	
         1.721	             	  4.267e-001 	
         1.760	  1.151e-001 	             	
         1.785	             	  4.269e-001 	
         1.824	  1.157e-001 	             	
         1.849	             	  4.271e-001 	
         1.888	  1.153e-001 	             	
         1.913	             	  4.272e-001 	
         1.952	  1.149e-001 	             	
         1.977	             	  4.273e-001 	
         2.016	  1.153e-001 	             	
         2.041	             	  4.274e-001 	
         2.080	  1.158e-001 	             	
         2.105	             	  4.275e-001 	
         2.144	  1.166e-001 	             	
         2.169	             	  4.277e-001 	
         2.208	  1.156e-001 	             	
         2.233	             	  4.277e-001 	
         2.272	  1.148e-001 	             	
         2.297	             	  4.278e-001 	
         2.336	  1.156e-001 	             	
         2.361	             	  4.278e-001 	
         2.400	  1.149e-001 	             	
         2.425	             	  4.279e-001 	
         2.496	  1.157e-001 	             	
         2.521	             	  4.280e-001 	
         2.560	  1.150e-001 	             	
         2.585	             	  4.281e-001 	
         2.624	  1.150e-001 	             	
         2.649	             	  4.281e-001 	
         2.688	  1.157e-001 	             	
         2.713	             	  4.282e-001 	
         2.752	  1.153e-001 	             	
         2.777	             	  4.282e-001 	
         2.816	  1.160e-001 	             	
         2.841	             	  4.282e-001 	
         2.880	  1.160e-001 	             	
         2.905	             	  4.281e-001 	
         2.944	  1.152e-001 	             	
         2.969	             	  4.281e-001 	
         3.008	  1.154e-001 	             	
         3.033	             	  4.281e-001 	
         3.072	  1.157e-001 	             	
         3.097	             	  4.281e-001 	
         3.136	  1.159e-001 	             	
         3.161	             	  4.281e-001 	
         3.200	  1.157e-001 	             	
         3.225	             	  4.282e-001 	
         3.264	  1.157e-001 	             	
         3.321	             	  4.283e-001 	
         3.360	  1.156e-001 	             	
         3.385	             	  4.283e-001 	
         3.424	  1.165e-001 	             	
         3.449	             	  4.285e-001 	
         3.488	  1.163e-001 	             	
         3.513	             	  4.285e-001 	
         3.552	  1.160e-001 	             	
         3.577	             	  4.287e-001 	
         3.616	  1.156e-001 	             	
         3.641	             	  4.288e-001 	
         3.680	  1.160e-001 	             	
         3.705	             	  4.289e-001 	
         3.744	  1.157e-001 	             	
         3.769	             	  4.289e-001 	
         3.808	  1.154e-001 	             	
         3.833	             	  4.290e-001 	
         3.872	  1.156e-001 	             	
         3.897	             	  4.290e-001 	
         3.936	  1.153e-001 	             	
         3.961	             	  4.290e-001 	
         4.000	  1.149e-001 	             	
         4.025	             	  4.290e-001 	
         4.064	  1.157e-001 	             	
         4.121	             	  4.290e-001 	
         4.160	  1.152e-001 	             	
         4.185	             	  4.290e-001 	
         4.224	  1.149e-001 	             	
         4.249	             	  4.290e-001 	
         4.288	  1.141e-001 	             	
         4.313	             	  4.290e-001 	
         4.352	  1.140e-001 	             	
         4.377	             	  4.290e-001 	
         4.416	  1.139e-001 	             	
         4.441	             	  4.291e-001 	
         4.480	  1.136e-001 	             	
         4.505	             	  4.291e-001 	
         4.544	  1.140e-001 	             	
         4.569	             	  4.291e-001 	
         4.608	  1.133e-001 	             	
         4.633	             	  4.291e-001 	
         4.672	  1.137e-001 	             	
         4.697	             	  4.290e-001 	
         4.736	  1.131e-001 	             	
         4.761	             	  4.290e-001 	
         4.800	  1.142e-001 	             	
         4.825	             	  4.290e-001 	
         4.864	  1.141e-001 	             	
         4.921	             	  4.291e-001 	
         4.960	  1.139e-001 	             	
         4.985	             	  4.292e-001 	
         5.024	  1.139e-001 	             	
         5.049	             	  4.292e-001 	
         5.088	  1.146e-001 	             	
         5.113	             	  4.292e-001 	
         5.152	  1.145e-001 	             	
         5.177	             	  4.291e-001 	
         5.216	  1.149e-001 	             	
         5.241	             	  4.290e-001 	
         5.280	  1.141e-001 	             	
         5.305	             	  4.290e-001 	
         5.344	  1.155e-001 	             	
         5.369	             	  4.290e-001 	
         5.408	  1.150e-001 	             	
         5.433	             	  4.290e-001 	
         5.472	  1.145e-001 	             	
         5.497	             	  4.290e-001 	
         5.536	  1.148e-001 	             	
         5.561	             	  4.291e-001 	
         5.600	  1.151e-001 	             	
         5.625	             	  4.290e-001 	
         5.664	  1.151e-001 	             	
         5.721	             	  4.289e-001 	
         5.760	  1.150e-001 	             	
         5.785	             	  4.290e-001 	
         5.824	  1.149e-001 	             	
         5.849	             	  4.291e-001 	
         5.888	  1.147e-001 	             	
         5.913	             	  4.291e-001 	
         5.952	  1.142e-001 	             	
         5.977	             	  4.290e-001 	
         6.016	  1.146e-001 	             	
         6.041	             	  4.290e-001 	
         6.080	  1.151e-001 	             	
         6.105	             	  4.290e-001 	
         6.144	  1.158e-001 	             	
         6.169	             	  4.290e-001 	
         6.208	  1.157e-001 	             	
         6.233	             	  4.290e-001 	
         6.272	  1.167e-001 	             	
         6.297	             	  4.292e-001 	
         6.336	  1.162e-001 	             	
         6.361	             	  4.293e-001 	
         6.400	  1.158e-001 	             	
         6.425	             	  4.294e-001 	
         6.464	  1.162e-001 	             	
         6.521	             	  4.295e-001 	
         6.560	  1.162e-001 	             	
         6.585	             	  4.294e-001 	
         6.624	  1.167e-001 	             	
         6.648	             	  4.293e-001 	
         6.688	  1.162e-001 	             	
         6.713	             	  4.292e-001 	
         6.752	  1.165e-001 	             	
         6.777	             	  4.293e-001 	
         6.816	  1.164e-001 	             	
         6.841	             	  4.293e-001 	
         6.880	  1.165e-001 	             	
         6.905	             	  4.293e-001 	
         6.944	  1.170e-001 	             	
         6.969	             	  4.293e-001 	
         7.008	  1.163e-001 	             	
         7.033	             	  4.292e-001 	
         7.072	  1.160e-001 	             	
         7.097	             	  4.292e-001 	
         7.136	  1.167e-001 	             	
         7.161	             	  4.292e-001 	
         7.200	  1.157e-001 	             	
         7.225	             	  4.292e-001 	
         7.264	  1.154e-001 	             	
         7.320	             	  4.292e-001 	
         7.360	  1.167e-001 	             	
         7.385	             	  4.291e-001 	
         7.424	  1.158e-001 	             	
         7.449	             	  4.291e-001 	
         7.488	  1.167e-001 	             	
         7.512	             	  4.290e-001 	
         7.552	  1.166e-001 	             	
         7.576	             	  4.291e-001 	
         7.616	  1.166e-001 	             	
         7.641	             	  4.291e-001 	
         7.680	  1.167e-001 	             	
         7.705	             	  4.291e-001 	
         7.744	  1.164e-001 	             	
         7.768	             	  4.291e-001 	
         7.808	  1.160e-001 	             	
         7.832	             	  4.291e-001 	
         7.872	  1.161e-001 	             	
         7.897	             	  4.292e-001 	
         7.936	  1.165e-001 	             	
         7.960	             	  4.292e-001 	
         8.000	  1.159e-001 	             	
         8.024	             	  4.292e-001 	
         8.064	  1.159e-001 	             	
         8.120	             	  4.292e-001 	
         8.160	  1.150e-001 	             	
         8.184	             	  4.291e-001 	
         8.224	  1.152e-001 	             	
         8.248	             	  4.291e-001 	
         8.288	  1.159e-001 	             	
         8.312	             	  4.290e-001 	
         8.352	  1.151e-001 	             	
         8.376	             	  4.290e-001 	
         8.416	  1.153e-001 	             	
         8.441	             	  4.290e-001 	
         8.480	  1.156e-001 	             	
         8.504	             	  4.291e-001 	
         8.544	  1.152e-001 	             	
         8.568	             	  4.290e-001 	
         8.608	  1.149e-001 	             	
         8.632	             	  4.290e-001 	
         8.672	  1.150e-001 	             	
         8.696	             	  4.290e-001 	
         8.736	  1.144e-001 	             	
         8.762	             	  4.291e-001 	
         8.800	  1.158e-001 	             	
         8.824	             	  4.291e-001 	
         8.864	  1.153e-001 	             	
         8.920	             	  4.291e-001 	
         8.960	  1.153e-001 	             	
         8.984	             	  4.290e-001 	
         9.024	  1.153e-001 	             	
         9.048	             	  4.290e-001 	
         9.088	  1.156e-001 	             	
         9.112	             	  4.291e-001 	
         9.152	  1.160e-001 	             	
         9.176	             	  4.291e-001 	
         9.216	  1.149e-001 	             	
         9.240	             	  4.291e-001 	
         9.280	  1.159e-001 	             	
         9.304	             	  4.291e-001 	
         9.344	  1.155e-001 	             	
         9.368	             	  4.291e-001 	
         9.408	  1.156e-001 	             	
         9.432	             	  4.290e-001 	
         9.472	  1.157e-001 	             	
         9.497	             	  4.289e-001 	
         9.536	  1.158e-001 	             	
         9.560	             	  4.289e-001 	
         9.600	  1.155e-001 	             	
         9.624	             	  4.289e-001 	
         9.664	  1.161e-001 	             	
         9.688	             	  4.288e-001 	
         9.760	  1.155e-001 	             	
         9.784	             	  4.288e-001 	
         9.824	  1.158e-001 	             	
         9.849	             	  4.287e-001 	
         9.888	  1.161e-001 	             	
         9.912	             	  4.287e-001 	
         9.952	  1.161e-001 	             	
         9.976	             	  4.287e-001 	
        10.016	  1.157e-001 	             	
        10.040	             	  4.286e-001 	
        10.080	  1.160e-001 	             	
        10.104	             	  4.287e-001 	
        10.144	  1.160e-001 	             	
        10.168	             	  4.287e-001 	
        10.208	  1.157e-001 	             	
        10.232	             	  4.287e-001 	
        10.272	  1.157e-001 	             	
        10.296	             	  4.287e-001 	
        10.336	  1.153e-001 	             	
        10.360	             	  4.288e-001 	
        10.400	  1.158e-001 	             	
        10.424	             	  4.287e-001 	
        10.464	  1.156e-001 	             	
        10.488	             	  4.286e-001 	
        10.560	  1.158e-001 	             	
        10.584	             	  4.286e-001 	
        10.624	  1.161e-001 	             	
        10.648	             	  4.286e-001 	
        10.688	  1.147e-001 	             	
        10.712	             	  4.286e-001 	
        10.752	  1.162e-001 	             	
        10.776	             	  4.286e-001 	
        10.816	  1.164e-001 	             	
        10.840	             	  4.286e-001 	
        10.880	  1.162e-001 	             	
        10.904	             	  4.286e-001 	
        10.944	  1.165e-001 	             	
        10.968	             	  4.286e-001 	
        11.008	  1.162e-001 	             	
        11.032	             	  4.285e-001 	
        11.072	  1.164e-001 	             	
        11.096	             	  4.285e-001 	
        11.136	  1.164e-001 	             	
        11.160	             	  4.285e-001 	
        11.200	  1.164e-001 	             	
        11.224	             	  4.285e-001 	
        11.264	  1.161e-001 	             	
        11.288	             	  4.285e-001 	
        11.360	  1.166e-001 	             	
        11.385	             	  4.284e-001 	
        11.424	  1.163e-001 	             	
        11.448	             	  4.285e-001 	
        11.488	  1.170e-001 	             	
        11.512	             	  4.285e-001 	
        11.552	  1.151e-001 	             	
        11.576	             	  4.285e-001 	
        11.616	  1.163e-001 	             	
        11.640	             	  4.285e-001 	
        11.680	  1.159e-001 	             	
        11.704	             	  4.286e-001 	
        11.744	  1.169e-001 	             	
        11.768	             	  4.286e-001 	
        11.807	  1.159e-001 	             	
        11.832	             	  4.286e-001 	
        11.872	  1.164e-001 	             	
        11.896	             	  4.286e-001 	
        11.936	  1.169e-001 	             	
        11.960	             	  4.286e-001 	
        11.999	  1.163e-001 	             	
        12.024	             	  4.286e-001 	
        12.063	  1.159e-001 	             	
        12.088	             	  4.287e-001 	
        12.160	  1.163e-001 	             	
        12.184	             	  4.286e-001 	
        12.223	  1.158e-001 	             	
        12.248	             	  4.285e-001 	
        12.288	  1.154e-001 	             	
        12.312	             	  4.284e-001 	
        12.352	  1.159e-001 	             	
        12.376	             	  4.284e-001 	
        12.415	  1.163e-001 	             	
        12.440	             	  4.283e-001 	
        12.479	  1.163e-001 	             	
        12.504	             	  4.282e-001 	
        12.544	  1.157e-001 	             	
        12.568	             	  4.281e-001 	
        12.607	  1.165e-001 	             	
        12.632	             	  4.281e-001 	
        12.671	  1.168e-001 	             	
        12.696	             	  4.282e-001 	
        12.736	  1.160e-001 	             	
        12.760	             	  4.282e-001 	
        12.800	  1.164e-001 	             	
        12.824	             	  4.282e-001 	
        12.864	  1.168e-001 	             	
        12.888	             	  4.283e-001 	
        12.959	  1.163e-001 	             	
        12.984	             	  4.284e-001 	
        13.023	  1.163e-001 	             	
        13.048	             	  4.284e-001 	
        13.087	  1.165e-001 	             	
        13.112	             	  4.285e-001 	
        13.152	  1.167e-001 	             	
        13.176	             	  4.286e-001 	
        13.215	  1.161e-001 	             	
        13.240	             	  4.286e-001 	
        13.279	  1.161e-001 	             	
        13.304	             	  4.287e-001 	
        13.343	  1.154e-001 	             	
        13.368	             	  4.286e-001 	
        13.407	  1.154e-001 	             	
        13.432	             	  4.286e-001 	
        13.471	  1.149e-001 	             	
        13.496	             	  4.287e-001 	
        13.535	  1.167e-001 	             	
        13.560	             	  4.287e-001 	
        13.599	  1.165e-001 	             	
        13.624	             	  4.287e-001 	
        13.663	  1.165e-001 	             	
        13.688	             	  4.287e-001 	
        13.759	  1.158e-001 	             	
        13.784	             	  4.287e-001 	
        13.823	  1.164e-001 	             	
        13.848	             	  4.288e-001 	
        13.887	  1.167e-001 	             	
        13.912	             	  4.289e-001 	
        13.951	  1.162e-001 	             	
        13.976	             	  4.290e-001 	
        14.015	  1.153e-001 	             	
        14.040	             	  4.290e-001 	
        14.079	  1.167e-001 	             	
        14.104	             	  4.290e-001 	
        14.143	  1.162e-001 	             	
        14.168	             	  4.291e-001 	
        14.207	  1.164e-001 	             	
