;PC Software:StarLab Version 2.10 Build 25
;Logged:20/09/2022 at 17:08:58
;File Version:3
;Graph Type:Line
;Notes:                                                            

;Channel A:Nova II Photodiode PD300-3W-v1 (s/n:763106)  NN2.52 (s/n:767396)
;Channel B:Vega Thermopile 10A-V1.1 (s/n:693380)  VG2.44 (s/n:858327)

;Channel A:Details
;Name:PD300-3W-v1
;Graph Color:RGB(0,102,255)
;Units:W
;Settings:Measuring:Power
;Settings:Wavelength:1064
;Settings:Range:AUTO
;Settings:Filter:IN

;Channel B:Details
;Name:10A-V1.1
;Graph Color:RGB(154,0,0)
;Units:W
;Settings:Measuring:Power
;Settings:Laser:.8-6
;Settings:Range:AUTO
;--------------------


;First Pulse Arrived : 20/09/2022 at 17:08:58.715000
  Timestamp   	  Channel A  	  Channel B  	
         0.000	             	  4.585e-001 	
         0.030	  1.320e-003 	             	
         0.064	             	  4.586e-001 	
         0.094	  1.320e-003 	             	
         0.128	             	  4.586e-001 	
         0.157	  1.320e-003 	             	
         0.192	             	  4.585e-001 	
         0.222	  1.320e-003 	             	
         0.285	  1.330e-003 	             	
         0.288	             	  4.585e-001 	
         0.350	  1.330e-003 	             	
         0.352	             	  4.585e-001 	
         0.414	  1.330e-003 	             	
         0.416	             	  4.585e-001 	
         0.478	  1.340e-003 	             	
         0.480	             	  4.585e-001 	
         0.542	  1.330e-003 	             	
         0.544	             	  4.585e-001 	
         0.605	  1.330e-003 	             	
         0.608	             	  4.585e-001 	
         0.669	  1.330e-003 	             	
         0.672	             	  4.586e-001 	
         0.733	  1.330e-003 	             	
         0.736	             	  4.587e-001 	
         0.797	  1.340e-003 	             	
         0.800	             	  4.587e-001 	
         0.864	             	  4.587e-001 	
         0.893	  1.340e-003 	             	
         0.928	             	  4.587e-001 	
         0.957	  1.340e-003 	             	
         0.992	             	  4.586e-001 	
         1.021	  1.330e-003 	             	
         1.085	  1.350e-003 	             	
         1.088	             	  4.586e-001 	
         1.149	  1.350e-003 	             	
         1.152	             	  4.585e-001 	
         1.213	  1.340e-003 	             	
         1.216	             	  4.585e-001 	
         1.277	  1.350e-003 	             	
         1.280	             	  4.585e-001 	
         1.341	  1.340e-003 	             	
         1.344	             	  4.585e-001 	
         1.405	  1.350e-003 	             	
         1.408	             	  4.585e-001 	
         1.469	  1.360e-003 	             	
         1.472	             	  4.586e-001 	
         1.533	  1.350e-003 	             	
         1.536	             	  4.585e-001 	
         1.597	  1.350e-003 	             	
         1.600	             	  4.585e-001 	
         1.664	             	  4.586e-001 	
         1.693	  1.360e-003 	             	
         1.728	             	  4.587e-001 	
         1.757	  1.360e-003 	             	
         1.792	             	  4.587e-001 	
         1.821	  1.370e-003 	             	
         1.885	  1.360e-003 	             	
         1.888	             	  4.587e-001 	
         1.949	  1.360e-003 	             	
         1.952	             	  4.587e-001 	
         2.013	  1.370e-003 	             	
         2.016	             	  4.587e-001 	
         2.077	  1.360e-003 	             	
         2.080	             	  4.587e-001 	
         2.141	  1.370e-003 	             	
         2.144	             	  4.587e-001 	
         2.205	  1.370e-003 	             	
         2.208	             	  4.586e-001 	
         2.269	  1.380e-003 	             	
         2.272	             	  4.587e-001 	
         2.333	  1.370e-003 	             	
         2.336	             	  4.586e-001 	
         2.397	  1.370e-003 	             	
         2.400	             	  4.586e-001 	
         2.464	             	  4.585e-001 	
         2.493	  1.380e-003 	             	
         2.528	             	  4.584e-001 	
         2.557	  1.450e-003 	             	
         2.592	             	  4.584e-001 	
         2.621	  1.460e-003 	             	
         2.685	  1.430e-003 	             	
         2.688	             	  4.584e-001 	
         2.749	  1.360e-003 	             	
         2.752	             	  4.584e-001 	
         2.813	  1.300e-003 	             	
         2.816	             	  4.584e-001 	
         2.877	  1.310e-003 	             	
         2.880	             	  4.585e-001 	
         2.941	  1.330e-003 	             	
         2.944	             	  4.586e-001 	
         3.005	  1.350e-003 	             	
         3.008	             	  4.586e-001 	
         3.069	  1.380e-003 	             	
         3.072	             	  4.587e-001 	
         3.133	  1.400e-003 	             	
         3.136	             	  4.587e-001 	
         3.197	  1.400e-003 	             	
         3.200	             	  4.587e-001 	
         3.264	             	  4.587e-001 	
         3.293	  1.440e-003 	             	
         3.328	             	  4.586e-001 	
         3.357	  1.480e-003 	             	
         3.392	             	  4.586e-001 	
         3.421	  1.500e-003 	             	
         3.485	  1.520e-003 	             	
         3.488	             	  4.585e-001 	
         3.549	  1.540e-003 	             	
         3.552	             	  4.585e-001 	
         3.613	  1.570e-003 	             	
         3.616	             	  4.586e-001 	
         3.677	  1.580e-003 	             	
         3.680	             	  4.586e-001 	
         3.741	  1.600e-003 	             	
         3.744	             	  4.586e-001 	
         3.805	  1.650e-003 	             	
         3.808	             	  4.586e-001 	
         3.869	  1.660e-003 	             	
         3.872	             	  4.586e-001 	
         3.933	  1.680e-003 	             	
         3.936	             	  4.586e-001 	
         3.997	  1.690e-003 	             	
         4.000	             	  4.585e-001 	
         4.064	             	  4.585e-001 	
         4.093	  1.700e-003 	             	
         4.128	             	  4.585e-001 	
         4.157	  1.720e-003 	             	
         4.192	             	  4.585e-001 	
         4.221	  1.720e-003 	             	
         4.256	             	  4.585e-001 	
         4.285	  1.730e-003 	             	
         4.349	  1.730e-003 	             	
         4.352	             	  4.584e-001 	
         4.413	  1.740e-003 	             	
         4.416	             	  4.584e-001 	
         4.477	  1.730e-003 	             	
         4.480	             	  4.585e-001 	
         4.541	  1.760e-003 	             	
         4.544	             	  4.585e-001 	
         4.605	  1.750e-003 	             	
         4.608	             	  4.585e-001 	
         4.669	  1.750e-003 	             	
         4.672	             	  4.585e-001 	
         4.733	  1.760e-003 	             	
         4.736	             	  4.585e-001 	
         4.797	  1.760e-003 	             	
         4.800	             	  4.585e-001 	
         4.864	             	  4.585e-001 	
         4.893	  1.760e-003 	             	
         4.928	             	  4.585e-001 	
         4.957	  1.780e-003 	             	
         4.992	             	  4.584e-001 	
         5.021	  1.790e-003 	             	
         5.085	  1.800e-003 	             	
         5.088	             	  4.584e-001 	
         5.149	  1.810e-003 	             	
         5.152	             	  4.583e-001 	
         5.213	  1.820e-003 	             	
         5.216	             	  4.583e-001 	
         5.277	  1.820e-003 	             	
         5.280	             	  4.582e-001 	
         5.341	  1.820e-003 	             	
         5.344	             	  4.581e-001 	
         5.405	  1.840e-003 	             	
         5.408	             	  4.581e-001 	
         5.469	  1.850e-003 	             	
         5.472	             	  4.582e-001 	
         5.533	  1.900e-003 	             	
         5.536	             	  4.582e-001 	
         5.597	  1.930e-003 	             	
         5.600	             	  4.583e-001 	
         5.664	             	  4.583e-001 	
         5.693	  1.960e-003 	             	
         5.728	             	  4.583e-001 	
         5.757	  1.980e-003 	             	
         5.792	             	  4.583e-001 	
         5.821	  1.970e-003 	             	
         5.856	             	  4.583e-001 	
         5.885	  1.950e-003 	             	
         5.949	  1.940e-003 	             	
         5.952	             	  4.583e-001 	
         6.013	  1.920e-003 	             	
         6.016	             	  4.584e-001 	
         6.077	  1.860e-003 	             	
         6.080	             	  4.585e-001 	
         6.141	  1.800e-003 	             	
         6.144	             	  4.585e-001 	
         6.205	  1.820e-003 	             	
         6.208	             	  4.585e-001 	
         6.269	  1.760e-003 	             	
         6.272	             	  4.584e-001 	
         6.333	  1.760e-003 	             	
         6.336	             	  4.584e-001 	
         6.397	  1.790e-003 	             	
         6.400	             	  4.583e-001 	
         6.464	             	  4.583e-001 	
         6.493	  1.720e-003 	             	
         6.528	             	  4.584e-001 	
         6.557	  1.670e-003 	             	
         6.592	             	  4.585e-001 	
         6.621	  1.590e-003 	             	
         6.656	             	  4.585e-001 	
         6.685	  1.490e-003 	             	
         6.749	  1.430e-003 	             	
         6.752	             	  4.585e-001 	
         6.813	  1.350e-003 	             	
         6.816	             	  4.586e-001 	
         6.877	  1.270e-003 	             	
         6.880	             	  4.586e-001 	
         6.941	  1.150e-003 	             	
         6.944	             	  4.586e-001 	
         7.005	  1.070e-003 	             	
         7.008	             	  4.586e-001 	
         7.069	  9.800e-004 	             	
         7.072	             	  4.586e-001 	
         7.133	  8.900e-004 	             	
         7.136	             	  4.586e-001 	
         7.197	  8.100e-004 	             	
         7.200	             	  4.585e-001 	
         7.264	             	  4.585e-001 	
         7.293	  7.500e-004 	             	
         7.328	             	  4.584e-001 	
         7.357	  6.600e-004 	             	
         7.392	             	  4.582e-001 	
         7.421	  5.800e-004 	             	
         7.456	             	  4.581e-001 	
         7.485	  5.200e-004 	             	
         7.549	  4.800e-004 	             	
         7.552	             	  4.580e-001 	
         7.613	  4.500e-004 	             	
         7.616	             	  4.580e-001 	
         7.677	  4.500e-004 	             	
         7.680	             	  4.580e-001 	
         7.741	  4.500e-004 	             	
         7.744	             	  4.580e-001 	
         7.805	  4.200e-004 	             	
         7.808	             	  4.580e-001 	
         7.869	  4.000e-004 	             	
         7.872	             	  4.580e-001 	
         7.933	  3.900e-004 	             	
         7.936	             	  4.580e-001 	
         7.997	  3.800e-004 	             	
         8.000	             	  4.581e-001 	
         8.064	             	  4.582e-001 	
         8.093	  3.800e-004 	             	
         8.128	             	  4.583e-001 	
         8.157	  4.000e-004 	             	
         8.192	             	  4.583e-001 	
         8.221	  4.500e-004 	             	
         8.256	             	  4.583e-001 	
         8.285	  4.600e-004 	             	
         8.349	  4.800e-004 	             	
         8.352	             	  4.584e-001 	
         8.413	  4.800e-004 	             	
         8.416	             	  4.585e-001 	
         8.477	  5.100e-004 	             	
         8.480	             	  4.585e-001 	
         8.541	  5.300e-004 	             	
         8.544	             	  4.586e-001 	
         8.605	  5.600e-004 	             	
         8.608	             	  4.585e-001 	
         8.669	  5.900e-004 	             	
         8.672	             	  4.585e-001 	
         8.733	  6.300e-004 	             	
         8.736	             	  4.585e-001 	
         8.797	  6.700e-004 	             	
         8.800	             	  4.584e-001 	
         8.864	             	  4.584e-001 	
         8.893	  7.100e-004 	             	
         8.928	             	  4.584e-001 	
         8.957	  7.300e-004 	             	
         8.992	             	  4.584e-001 	
         9.021	  7.600e-004 	             	
         9.056	             	  4.584e-001 	
         9.085	  8.500e-004 	             	
         9.149	  9.600e-004 	             	
         9.152	             	  4.584e-001 	
         9.213	  1.010e-003 	             	
         9.216	             	  4.585e-001 	
         9.277	  1.030e-003 	             	
         9.280	             	  4.585e-001 	
         9.341	  1.080e-003 	             	
         9.344	             	  4.585e-001 	
         9.405	  1.110e-003 	             	
         9.408	             	  4.586e-001 	
         9.469	  1.170e-003 	             	
         9.472	             	  4.587e-001 	
         9.533	  1.200e-003 	             	
         9.536	             	  4.588e-001 	
         9.597	  1.220e-003 	             	
         9.600	             	  4.589e-001 	
         9.664	             	  4.589e-001 	
         9.694	  1.300e-003 	             	
         9.728	             	  4.590e-001 	
         9.757	  1.440e-003 	             	
         9.792	             	  4.589e-001 	
         9.821	  1.490e-003 	             	
         9.856	             	  4.590e-001 	
         9.885	  1.530e-003 	             	
         9.949	  1.560e-003 	             	
         9.952	             	  4.590e-001 	
        10.013	  1.580e-003 	             	
        10.016	             	  4.590e-001 	
        10.077	  1.610e-003 	             	
        10.080	             	  4.591e-001 	
        10.141	  1.640e-003 	             	
        10.144	             	  4.591e-001 	
        10.205	  1.680e-003 	             	
        10.208	             	  4.592e-001 	
        10.269	  1.730e-003 	             	
        10.272	             	  4.592e-001 	
        10.333	  1.780e-003 	             	
        10.336	             	  4.592e-001 	
        10.397	  1.810e-003 	             	
        10.400	             	  4.591e-001 	
        10.464	             	  4.590e-001 	
        10.493	  1.880e-003 	             	
        10.528	             	  4.590e-001 	
        10.557	  2.020e-003 	             	
        10.592	             	  4.590e-001 	
        10.621	  2.130e-003 	             	
        10.656	             	  4.591e-001 	
        10.685	  2.330e-003 	             	
        10.749	  2.400e-003 	             	
        10.752	             	  4.591e-001 	
        10.813	  2.410e-003 	             	
        10.816	             	  4.591e-001 	
        10.878	  2.410e-003 	             	
        10.881	             	  4.592e-001 	
        10.942	  2.400e-003 	             	
        10.945	             	  4.592e-001 	
        11.006	  2.400e-003 	             	
        11.009	             	  4.591e-001 	
        11.070	  2.360e-003 	             	
        11.073	             	  4.590e-001 	
        11.134	  2.350e-003 	             	
        11.137	             	  4.591e-001 	
        11.198	  2.300e-003 	             	
        11.201	             	  4.591e-001 	
        11.265	             	  4.592e-001 	
        11.294	  2.290e-003 	             	
        11.329	             	  4.592e-001 	
        11.358	  2.310e-003 	             	
        11.393	             	  4.592e-001 	
        11.422	  2.180e-003 	             	
        11.457	             	  4.593e-001 	
        11.486	  2.090e-003 	             	
        11.550	  2.040e-003 	             	
        11.553	             	  4.593e-001 	
        11.614	  1.970e-003 	             	
        11.617	             	  4.593e-001 	
        11.678	  1.960e-003 	             	
        11.681	             	  4.593e-001 	
        11.742	  1.940e-003 	             	
        11.745	             	  4.592e-001 	
        11.806	  2.030e-003 	             	
        11.809	             	  4.592e-001 	
        11.870	  2.090e-003 	             	
        11.873	             	  4.592e-001 	
        11.934	  2.100e-003 	             	
        11.937	             	  4.591e-001 	
        11.998	  2.060e-003 	             	
        12.001	             	  4.591e-001 	
        12.065	             	  4.590e-001 	
        12.094	  2.020e-003 	             	
        12.129	             	  4.590e-001 	
        12.158	  1.970e-003 	             	
        12.193	             	  4.591e-001 	
        12.222	  1.910e-003 	             	
        12.257	             	  4.592e-001 	
        12.286	  1.860e-003 	             	
        12.350	  1.840e-003 	             	
        12.353	             	  4.592e-001 	
        12.414	  1.800e-003 	             	
        12.417	             	  4.591e-001 	
        12.478	  1.780e-003 	             	
        12.481	             	  4.589e-001 	
        12.542	  1.700e-003 	             	
        12.545	             	  4.588e-001 	
        12.606	  1.600e-003 	             	
        12.609	             	  4.588e-001 	
        12.670	  1.530e-003 	             	
        12.673	             	  4.589e-001 	
        12.734	  1.470e-003 	             	
        12.737	             	  4.590e-001 	
        12.798	  1.410e-003 	             	
        12.801	             	  4.591e-001 	
        12.862	  1.380e-003 	             	
        12.865	             	  4.591e-001 	
        12.929	             	  4.592e-001 	
        12.958	  1.330e-003 	             	
        12.993	             	  4.592e-001 	
        13.022	  1.300e-003 	             	
        13.057	             	  4.592e-001 	
        13.086	  1.270e-003 	             	
        13.150	  1.240e-003 	             	
        13.153	             	  4.592e-001 	
        13.214	  1.250e-003 	             	
        13.217	             	  4.592e-001 	
        13.278	  1.290e-003 	             	
        13.281	             	  4.592e-001 	
        13.342	  1.300e-003 	             	
        13.345	             	  4.592e-001 	
        13.406	  1.300e-003 	             	
        13.409	             	  4.591e-001 	
        13.470	  1.310e-003 	             	
        13.473	             	  4.590e-001 	
        13.534	  1.320e-003 	             	
        13.537	             	  4.590e-001 	
        13.598	  1.360e-003 	             	
        13.601	             	  4.591e-001 	
        13.662	  1.390e-003 	             	
        13.665	             	  4.591e-001 	
        13.729	             	  4.591e-001 	
        13.758	  1.460e-003 	             	
        13.793	             	  4.592e-001 	
        13.822	  1.500e-003 	             	
        13.857	             	  4.592e-001 	
        13.886	  1.520e-003 	             	
        13.950	  1.570e-003 	             	
        13.953	             	  4.593e-001 	
        14.014	  1.630e-003 	             	
        14.017	             	  4.594e-001 	
        14.078	  1.690e-003 	             	
        14.081	             	  4.595e-001 	
        14.142	  1.740e-003 	             	
        14.145	             	  4.594e-001 	
        14.206	  1.760e-003 	             	
