;PC Software:StarLab Version 2.10 Build 25
;Logged:23/09/2022 at 16:56:21
;File Version:3
;Graph Type:Line
;Notes:                                                            

;Channel A:Nova II Photodiode PD300-3W-v1 (s/n:763106)  NN2.52 (s/n:767396)
;Channel B:Vega Thermopile 10A-V1.1 (s/n:693380)  VG2.44 (s/n:858327)

;Channel A:Details
;Name:PD300-3W-v1
;Graph Color:RGB(0,102,255)
;Units:W
;Settings:Measuring:Power
;Settings:Wavelength:1064
;Settings:Range:AUTO
;Settings:Filter:IN

;Channel B:Details
;Name:10A-V1.1
;Graph Color:RGB(154,0,0)
;Units:W
;Settings:Measuring:Power
;Settings:Laser:.8-6
;Settings:Range:5.00W
;--------------------


;First Pulse Arrived : 23/09/2022 at 16:56:21.891000
  Timestamp   	  Channel A  	  Channel B  	
         0.000	  7.750e-003 	             	
         0.022	             	  5.080e-001 	
         0.064	  7.740e-003 	             	
         0.086	             	  5.080e-001 	
         0.128	  7.730e-003 	             	
         0.150	             	  5.080e-001 	
         0.192	  7.720e-003 	             	
         0.246	             	  5.080e-001 	
         0.256	  7.770e-003 	             	
         0.310	             	  5.080e-001 	
         0.320	  7.760e-003 	             	
         0.374	             	  5.080e-001 	
         0.384	  7.750e-003 	             	
         0.438	             	  5.080e-001 	
         0.448	  7.760e-003 	             	
         0.502	             	  5.080e-001 	
         0.544	  7.740e-003 	             	
         0.566	             	  5.080e-001 	
         0.608	  7.740e-003 	             	
         0.630	             	  5.080e-001 	
         0.672	  7.750e-003 	             	
         0.694	             	  5.080e-001 	
         0.736	  7.740e-003 	             	
         0.758	             	  5.080e-001 	
         0.800	  7.770e-003 	             	
         0.822	             	  5.090e-001 	
         0.864	  7.740e-003 	             	
         0.886	             	  5.080e-001 	
         0.928	  7.740e-003 	             	
         0.950	             	  5.080e-001 	
         0.992	  7.720e-003 	             	
         1.046	             	  5.080e-001 	
         1.056	  7.740e-003 	             	
         1.110	             	  5.080e-001 	
         1.120	  7.710e-003 	             	
         1.174	             	  5.080e-001 	
         1.184	  7.690e-003 	             	
         1.238	             	  5.080e-001 	
         1.248	  7.700e-003 	             	
         1.302	             	  5.080e-001 	
         1.344	  7.710e-003 	             	
         1.366	             	  5.080e-001 	
         1.409	  7.720e-003 	             	
         1.431	             	  5.080e-001 	
         1.472	  7.700e-003 	             	
         1.495	             	  5.080e-001 	
         1.537	  7.700e-003 	             	
         1.559	             	  5.080e-001 	
         1.600	  7.710e-003 	             	
         1.623	             	  5.080e-001 	
         1.664	  7.720e-003 	             	
         1.687	             	  5.080e-001 	
         1.729	  7.710e-003 	             	
         1.751	             	  5.080e-001 	
         1.793	  7.740e-003 	             	
         1.847	             	  5.080e-001 	
         1.856	  7.750e-003 	             	
         1.911	             	  5.080e-001 	
         1.921	  7.720e-003 	             	
         1.975	             	  5.080e-001 	
         1.985	  7.770e-003 	             	
         2.039	             	  5.080e-001 	
         2.049	  7.790e-003 	             	
         2.103	             	  5.080e-001 	
         2.145	  7.760e-003 	             	
         2.167	             	  5.080e-001 	
         2.209	  7.790e-003 	             	
         2.231	             	  5.080e-001 	
         2.273	  7.790e-003 	             	
         2.295	             	  5.080e-001 	
         2.337	  7.800e-003 	             	
         2.359	             	  5.080e-001 	
         2.400	  7.790e-003 	             	
         2.423	             	  5.080e-001 	
         2.465	  7.750e-003 	             	
         2.487	             	  5.080e-001 	
         2.529	  7.790e-003 	             	
         2.551	             	  5.080e-001 	
         2.592	  7.720e-003 	             	
         2.647	             	  5.080e-001 	
         2.656	  7.720e-003 	             	
         2.711	             	  5.080e-001 	
         2.720	  7.690e-003 	             	
         2.775	             	  5.080e-001 	
         2.784	  7.680e-003 	             	
         2.839	             	  5.080e-001 	
         2.849	  7.730e-003 	             	
         2.903	             	  5.080e-001 	
         2.944	  7.710e-003 	             	
         2.967	             	  5.080e-001 	
         3.008	  7.720e-003 	             	
         3.031	             	  5.080e-001 	
         3.072	  7.700e-003 	             	
         3.095	             	  5.080e-001 	
         3.136	  7.740e-003 	             	
         3.159	             	  5.080e-001 	
         3.200	  7.740e-003 	             	
         3.223	             	  5.080e-001 	
         3.264	  7.730e-003 	             	
         3.287	             	  5.080e-001 	
         3.328	  7.770e-003 	             	
         3.351	             	  5.080e-001 	
         3.392	  7.770e-003 	             	
         3.447	             	  5.080e-001 	
         3.456	  7.780e-003 	             	
         3.511	             	  5.080e-001 	
         3.520	  7.800e-003 	             	
         3.575	             	  5.080e-001 	
         3.584	  7.820e-003 	             	
         3.639	             	  5.080e-001 	
         3.648	  7.770e-003 	             	
         3.703	             	  5.080e-001 	
         3.744	  7.820e-003 	             	
         3.767	             	  5.080e-001 	
         3.808	  7.760e-003 	             	
         3.831	             	  5.080e-001 	
         3.872	  7.810e-003 	             	
         3.895	             	  5.080e-001 	
         3.936	  7.820e-003 	             	
         3.959	             	  5.080e-001 	
         4.000	  7.850e-003 	             	
         4.023	             	  5.080e-001 	
         4.064	  7.830e-003 	             	
         4.087	             	  5.080e-001 	
         4.128	  7.810e-003 	             	
         4.151	             	  5.080e-001 	
         4.192	  7.810e-003 	             	
         4.247	             	  5.080e-001 	
         4.256	  7.820e-003 	             	
         4.311	             	  5.080e-001 	
         4.320	  7.820e-003 	             	
         4.375	             	  5.080e-001 	
         4.384	  7.840e-003 	             	
         4.439	             	  5.080e-001 	
         4.448	  7.840e-003 	             	
         4.503	             	  5.080e-001 	
         4.512	  7.820e-003 	             	
         4.567	             	  5.080e-001 	
         4.608	  7.820e-003 	             	
         4.631	             	  5.080e-001 	
         4.672	  7.780e-003 	             	
         4.695	             	  5.080e-001 	
         4.736	  7.800e-003 	             	
         4.759	             	  5.080e-001 	
         4.800	  7.790e-003 	             	
         4.823	             	  5.080e-001 	
         4.864	  7.720e-003 	             	
         4.887	             	  5.080e-001 	
         4.928	  7.760e-003 	             	
         4.951	             	  5.080e-001 	
         4.992	  7.750e-003 	             	
         5.047	             	  5.080e-001 	
         5.056	  7.750e-003 	             	
         5.111	             	  5.080e-001 	
         5.120	  7.740e-003 	             	
         5.175	             	  5.080e-001 	
         5.184	  7.700e-003 	             	
         5.239	             	  5.080e-001 	
         5.248	  7.670e-003 	             	
         5.303	             	  5.080e-001 	
         5.312	  7.700e-003 	             	
         5.367	             	  5.090e-001 	
         5.408	  7.690e-003 	             	
         5.431	             	  5.090e-001 	
         5.472	  7.660e-003 	             	
         5.495	             	  5.080e-001 	
         5.536	  7.680e-003 	             	
         5.559	             	  5.080e-001 	
         5.600	  7.650e-003 	             	
         5.623	             	  5.080e-001 	
         5.664	  7.700e-003 	             	
         5.687	             	  5.080e-001 	
         5.728	  7.670e-003 	             	
         5.751	             	  5.080e-001 	
         5.792	  7.700e-003 	             	
         5.847	             	  5.080e-001 	
         5.856	  7.670e-003 	             	
         5.911	             	  5.080e-001 	
         5.920	  7.680e-003 	             	
         5.975	             	  5.080e-001 	
         5.984	  7.680e-003 	             	
         6.039	             	  5.080e-001 	
         6.048	  7.650e-003 	             	
         6.103	             	  5.080e-001 	
         6.112	  7.690e-003 	             	
         6.167	             	  5.080e-001 	
         6.208	  7.720e-003 	             	
         6.231	             	  5.080e-001 	
         6.272	  7.700e-003 	             	
         6.295	             	  5.080e-001 	
         6.336	  7.730e-003 	             	
         6.359	             	  5.080e-001 	
         6.400	  7.720e-003 	             	
         6.423	             	  5.080e-001 	
         6.464	  7.750e-003 	             	
         6.487	             	  5.090e-001 	
         6.528	  7.750e-003 	             	
         6.551	             	  5.090e-001 	
         6.592	  7.740e-003 	             	
         6.647	             	  5.090e-001 	
         6.656	  7.710e-003 	             	
         6.711	             	  5.090e-001 	
         6.720	  7.740e-003 	             	
         6.775	             	  5.080e-001 	
         6.784	  7.700e-003 	             	
         6.839	             	  5.080e-001 	
         6.848	  7.730e-003 	             	
         6.903	             	  5.080e-001 	
         6.912	  7.720e-003 	             	
         6.967	             	  5.080e-001 	
         7.008	  7.730e-003 	             	
         7.031	             	  5.080e-001 	
         7.072	  7.730e-003 	             	
         7.095	             	  5.080e-001 	
         7.136	  7.740e-003 	             	
         7.159	             	  5.080e-001 	
         7.200	  7.730e-003 	             	
         7.223	             	  5.080e-001 	
         7.264	  7.750e-003 	             	
         7.287	             	  5.080e-001 	
         7.328	  7.770e-003 	             	
         7.351	             	  5.080e-001 	
         7.392	  7.780e-003 	             	
         7.447	             	  5.080e-001 	
         7.456	  7.760e-003 	             	
         7.511	             	  5.080e-001 	
         7.520	  7.750e-003 	             	
         7.575	             	  5.080e-001 	
         7.584	  7.790e-003 	             	
         7.639	             	  5.080e-001 	
         7.648	  7.820e-003 	             	
         7.703	             	  5.080e-001 	
         7.712	  7.790e-003 	             	
         7.767	             	  5.080e-001 	
         7.808	  7.760e-003 	             	
         7.831	             	  5.080e-001 	
         7.872	  7.750e-003 	             	
         7.895	             	  5.080e-001 	
         7.936	  7.710e-003 	             	
         7.959	             	  5.080e-001 	
         8.000	  7.690e-003 	             	
         8.023	             	  5.080e-001 	
         8.064	  7.690e-003 	             	
         8.087	             	  5.080e-001 	
         8.128	  7.690e-003 	             	
         8.151	             	  5.080e-001 	
         8.192	  7.720e-003 	             	
         8.247	             	  5.080e-001 	
         8.256	  7.690e-003 	             	
         8.311	             	  5.080e-001 	
         8.320	  7.730e-003 	             	
         8.375	             	  5.080e-001 	
         8.384	  7.740e-003 	             	
         8.439	             	  5.080e-001 	
         8.448	  7.770e-003 	             	
         8.503	             	  5.080e-001 	
         8.512	  7.780e-003 	             	
         8.567	             	  5.080e-001 	
         8.608	  7.810e-003 	             	
         8.631	             	  5.080e-001 	
         8.672	  7.790e-003 	             	
         8.695	             	  5.080e-001 	
         8.736	  7.790e-003 	             	
         8.759	             	  5.080e-001 	
         8.800	  7.780e-003 	             	
         8.823	             	  5.080e-001 	
         8.864	  7.820e-003 	             	
         8.887	             	  5.080e-001 	
         8.928	  7.830e-003 	             	
         8.951	             	  5.080e-001 	
         8.992	  7.850e-003 	             	
         9.047	             	  5.080e-001 	
         9.056	  7.810e-003 	             	
         9.111	             	  5.080e-001 	
         9.120	  7.840e-003 	             	
         9.175	             	  5.080e-001 	
         9.184	  7.860e-003 	             	
         9.239	             	  5.080e-001 	
         9.248	  7.840e-003 	             	
         9.303	             	  5.080e-001 	
         9.312	  7.850e-003 	             	
         9.367	             	  5.080e-001 	
         9.408	  7.800e-003 	             	
         9.431	             	  5.080e-001 	
         9.472	  7.840e-003 	             	
         9.495	             	  5.080e-001 	
         9.536	  7.840e-003 	             	
         9.559	             	  5.080e-001 	
         9.600	  7.850e-003 	             	
         9.623	             	  5.080e-001 	
         9.664	  7.860e-003 	             	
         9.687	             	  5.080e-001 	
         9.728	  7.820e-003 	             	
         9.751	             	  5.080e-001 	
         9.792	  7.810e-003 	             	
         9.847	             	  5.080e-001 	
         9.856	  7.790e-003 	             	
         9.911	             	  5.080e-001 	
         9.920	  7.780e-003 	             	
         9.975	             	  5.080e-001 	
         9.984	  7.780e-003 	             	
        10.039	             	  5.080e-001 	
        10.048	  7.770e-003 	             	
        10.103	             	  5.080e-001 	
        10.112	  7.750e-003 	             	
        10.167	             	  5.080e-001 	
        10.208	  7.780e-003 	             	
        10.231	             	  5.080e-001 	
        10.272	  7.760e-003 	             	
        10.295	             	  5.080e-001 	
        10.336	  7.730e-003 	             	
        10.359	             	  5.080e-001 	
        10.400	  7.770e-003 	             	
        10.423	             	  5.080e-001 	
        10.464	  7.760e-003 	             	
        10.487	             	  5.080e-001 	
        10.528	  7.740e-003 	             	
        10.551	             	  5.080e-001 	
        10.592	  7.700e-003 	             	
        10.647	             	  5.080e-001 	
        10.656	  7.680e-003 	             	
        10.711	             	  5.080e-001 	
        10.720	  7.680e-003 	             	
        10.775	             	  5.080e-001 	
        10.784	  7.670e-003 	             	
        10.839	             	  5.080e-001 	
        10.848	  7.700e-003 	             	
        10.903	             	  5.080e-001 	
        10.912	  7.700e-003 	             	
        10.967	             	  5.090e-001 	
        11.008	  7.700e-003 	             	
        11.031	             	  5.080e-001 	
        11.072	  7.730e-003 	             	
        11.095	             	  5.080e-001 	
        11.136	  7.690e-003 	             	
        11.159	             	  5.080e-001 	
        11.200	  7.730e-003 	             	
        11.223	             	  5.080e-001 	
        11.264	  7.730e-003 	             	
        11.287	             	  5.080e-001 	
        11.328	  7.710e-003 	             	
        11.351	             	  5.080e-001 	
        11.392	  7.710e-003 	             	
        11.415	             	  5.080e-001 	
        11.456	  7.730e-003 	             	
        11.511	             	  5.080e-001 	
        11.520	  7.730e-003 	             	
        11.575	             	  5.080e-001 	
        11.584	  7.740e-003 	             	
        11.639	             	  5.080e-001 	
        11.648	  7.750e-003 	             	
        11.702	             	  5.080e-001 	
        11.712	  7.770e-003 	             	
        11.767	             	  5.080e-001 	
        11.808	  7.740e-003 	             	
        11.831	             	  5.080e-001 	
        11.872	  7.740e-003 	             	
        11.895	             	  5.080e-001 	
        11.936	  7.740e-003 	             	
        11.959	             	  5.080e-001 	
        12.000	  7.750e-003 	             	
        12.023	             	  5.080e-001 	
        12.064	  7.780e-003 	             	
        12.087	             	  5.080e-001 	
        12.128	  7.760e-003 	             	
        12.150	             	  5.080e-001 	
        12.192	  7.770e-003 	             	
        12.215	             	  5.080e-001 	
        12.256	  7.760e-003 	             	
        12.310	             	  5.080e-001 	
        12.320	  7.770e-003 	             	
        12.375	             	  5.080e-001 	
        12.384	  7.780e-003 	             	
        12.439	             	  5.080e-001 	
        12.448	  7.780e-003 	             	
        12.503	             	  5.080e-001 	
        12.512	  7.770e-003 	             	
        12.566	             	  5.080e-001 	
        12.608	  7.790e-003 	             	
        12.630	             	  5.080e-001 	
        12.672	  7.790e-003 	             	
        12.694	             	  5.080e-001 	
        12.736	  7.810e-003 	             	
        12.759	             	  5.080e-001 	
        12.800	  7.770e-003 	             	
        12.822	             	  5.080e-001 	
        12.864	  7.800e-003 	             	
        12.886	             	  5.080e-001 	
        12.928	  7.790e-003 	             	
        12.951	             	  5.090e-001 	
        12.992	  7.780e-003 	             	
        13.014	             	  5.090e-001 	
        13.056	  7.790e-003 	             	
        13.111	             	  5.090e-001 	
        13.120	  7.850e-003 	             	
        13.174	             	  5.090e-001 	
        13.184	  7.800e-003 	             	
        13.238	             	  5.090e-001 	
        13.248	  7.780e-003 	             	
        13.302	             	  5.080e-001 	
        13.312	  7.730e-003 	             	
        13.366	             	  5.080e-001 	
        13.408	  7.740e-003 	             	
        13.430	             	  5.080e-001 	
        13.472	  7.720e-003 	             	
        13.494	             	  5.080e-001 	
        13.536	  7.730e-003 	             	
        13.558	             	  5.080e-001 	
        13.600	  7.780e-003 	             	
        13.622	             	  5.080e-001 	
        13.664	  7.790e-003 	             	
        13.686	             	  5.080e-001 	
        13.728	  7.820e-003 	             	
        13.750	             	  5.080e-001 	
        13.792	  7.790e-003 	             	
        13.814	             	  5.090e-001 	
        13.856	  7.810e-003 	             	
        13.910	             	  5.090e-001 	
        13.920	  7.800e-003 	             	
        13.974	             	  5.080e-001 	
        13.984	  7.830e-003 	             	
        14.038	             	  5.080e-001 	
        14.048	  7.820e-003 	             	
        14.102	             	  5.080e-001 	
        14.112	  7.850e-003 	             	
        14.166	             	  5.080e-001 	
        14.208	  7.900e-003 	             	
